# 178 angles,  1 tensor ranks for 0=projectile
@subtitle   "20O + d 2+1 as 3-;"                                                            
@legend ON
@legend x1 0.2
@legend y1 0.8
@g0 type LOGY
@yaxis ticklabel format power
@xaxis label "Scattering angle (degrees)"
@yaxis label "Cross section (mb/sr)"
@legend string   0 "Partition=  1 Excit=  1 near/far= 1"
#legend string   0 "Lab energy =   70.0000"
@s0 linestyle   1
#  Theta       sigma       iT11        T20         T21         T22         Kyy for projectile
   3.000      0.2710E+05
   4.000      0.1161E+05
   5.000       8332.    
   6.000       6860.    
   7.000       5636.    
   8.000       4459.    
   9.000       3360.    
   10.00       2396.    
   11.00       1603.    
   12.00       994.9    
   13.00       562.3    
   14.00       282.9    
   15.00       126.1    
   16.00       59.50    
   17.00       52.14    
   18.00       77.84    
   19.00       116.4    
   20.00       153.7    
   21.00       181.6    
   22.00       196.5    
   23.00       198.2    
   24.00       188.7    
   25.00       171.4    
   26.00       149.5    
   27.00       126.3    
   28.00       104.1    
   29.00       84.58    
   30.00       68.61    
   31.00       56.38    
   32.00       47.59    
   33.00       41.66    
   34.00       37.87    
   35.00       35.48    
   36.00       33.86    
   37.00       32.51    
   38.00       31.09    
   39.00       29.39    
   40.00       27.37    
   41.00       25.04    
   42.00       22.50    
   43.00       19.87    
   44.00       17.26    
   45.00       14.80    
   46.00       12.55    
   47.00       10.58    
   48.00       8.894    
   49.00       7.504    
   50.00       6.381    
   51.00       5.492    
   52.00       4.794    
   53.00       4.245    
   54.00       3.806    
   55.00       3.443    
   56.00       3.130    
   57.00       2.847    
   58.00       2.583    
   59.00       2.331    
   60.00       2.089    
   61.00       1.856    
   62.00       1.637    
   63.00       1.432    
   64.00       1.246    
   65.00       1.079    
   66.00      0.9327    
   67.00      0.8069    
   68.00      0.7004    
   69.00      0.6115    
   70.00      0.5379    
   71.00      0.4771    
   72.00      0.4266    
   73.00      0.3843    
   74.00      0.3479    
   75.00      0.3160    
   76.00      0.2872    
   77.00      0.2608    
   78.00      0.2360    
   79.00      0.2127    
   80.00      0.1907    
   81.00      0.1701    
   82.00      0.1508    
   83.00      0.1332    
   84.00      0.1171    
   85.00      0.1028    
   86.00      0.9014E-01
   87.00      0.7913E-01
   88.00      0.6965E-01
   89.00      0.6158E-01
   90.00      0.5475E-01
   91.00      0.4897E-01
   92.00      0.4407E-01
   93.00      0.3989E-01
   94.00      0.3627E-01
   95.00      0.3308E-01
   96.00      0.3022E-01
   97.00      0.2760E-01
   98.00      0.2517E-01
   99.00      0.2289E-01
   100.0      0.2073E-01
   101.0      0.1869E-01
   102.0      0.1677E-01
   103.0      0.1497E-01
   104.0      0.1330E-01
   105.0      0.1177E-01
   106.0      0.1037E-01
   107.0      0.9121E-02
   108.0      0.8010E-02
   109.0      0.7035E-02
   110.0      0.6188E-02
   111.0      0.5460E-02
   112.0      0.4838E-02
   113.0      0.4310E-02
   114.0      0.3862E-02
   115.0      0.3480E-02
   116.0      0.3154E-02
   117.0      0.2872E-02
   118.0      0.2624E-02
   119.0      0.2403E-02
   120.0      0.2203E-02
   121.0      0.2019E-02
   122.0      0.1847E-02
   123.0      0.1685E-02
   124.0      0.1533E-02
   125.0      0.1388E-02
   126.0      0.1252E-02
   127.0      0.1124E-02
   128.0      0.1006E-02
   129.0      0.8958E-03
   130.0      0.7955E-03
   131.0      0.7048E-03
   132.0      0.6234E-03
   133.0      0.5513E-03
   134.0      0.4880E-03
   135.0      0.4329E-03
   136.0      0.3852E-03
   137.0      0.3443E-03
   138.0      0.3093E-03
   139.0      0.2794E-03
   140.0      0.2539E-03
   141.0      0.2320E-03
   142.0      0.2130E-03
   143.0      0.1966E-03
   144.0      0.1821E-03
   145.0      0.1693E-03
   146.0      0.1578E-03
   147.0      0.1474E-03
   148.0      0.1379E-03
   149.0      0.1291E-03
   150.0      0.1211E-03
   151.0      0.1135E-03
   152.0      0.1065E-03
   153.0      0.9978E-04
   154.0      0.9339E-04
   155.0      0.8722E-04
   156.0      0.8124E-04
   157.0      0.7541E-04
   158.0      0.6972E-04
   159.0      0.6419E-04
   160.0      0.5886E-04
   161.0      0.5381E-04
   162.0      0.4913E-04
   163.0      0.4494E-04
   164.0      0.4136E-04
   165.0      0.3850E-04
   166.0      0.3647E-04
   167.0      0.3533E-04
   168.0      0.3513E-04
   169.0      0.3586E-04
   170.0      0.3747E-04
   171.0      0.3985E-04
   172.0      0.4285E-04
   173.0      0.4628E-04
   174.0      0.4992E-04
   175.0      0.5353E-04
   176.0      0.5688E-04
   177.0      0.5975E-04
   178.0      0.6195E-04
   179.0      0.6333E-04
   180.0      0.6380E-04
 END
@legend string   1 "Partition=  1 Excit=  2 near/far= 1"
#legend string   0 "Lab energy =   70.0000"
@s1 linestyle   2
#  Theta       sigma       iT11        T20         T21         T22         Kyy for projectile
   3.000       2.570    
   4.000       3.245    
   5.000       3.929    
   6.000       4.549    
   7.000       5.070    
   8.000       5.492    
   9.000       5.851    
   10.00       6.195    
   11.00       6.572    
   12.00       7.013    
   13.00       7.517    
   14.00       8.057    
   15.00       8.577    
   16.00       9.007    
   17.00       9.279    
   18.00       9.338    
   19.00       9.156    
   20.00       8.733    
   21.00       8.102    
   22.00       7.318    
   23.00       6.449    
   24.00       5.571    
   25.00       4.749    
   26.00       4.039    
   27.00       3.474    
   28.00       3.070    
   29.00       2.820    
   30.00       2.703    
   31.00       2.687    
   32.00       2.736    
   33.00       2.811    
   34.00       2.880    
   35.00       2.919    
   36.00       2.910    
   37.00       2.847    
   38.00       2.732    
   39.00       2.572    
   40.00       2.378    
   41.00       2.164    
   42.00       1.945    
   43.00       1.732    
   44.00       1.534    
   45.00       1.358    
   46.00       1.207    
   47.00       1.081    
   48.00      0.9789    
   49.00      0.8959    
   50.00      0.8282    
   51.00      0.7712    
   52.00      0.7207    
   53.00      0.6733    
   54.00      0.6265    
   55.00      0.5790    
   56.00      0.5301    
   57.00      0.4801    
   58.00      0.4297    
   59.00      0.3800    
   60.00      0.3321    
   61.00      0.2873    
   62.00      0.2462    
   63.00      0.2097    
   64.00      0.1780    
   65.00      0.1511    
   66.00      0.1288    
   67.00      0.1106    
   68.00      0.9608E-01
   69.00      0.8453E-01
   70.00      0.7532E-01
   71.00      0.6788E-01
   72.00      0.6170E-01
   73.00      0.5636E-01
   74.00      0.5156E-01
   75.00      0.4708E-01
   76.00      0.4280E-01
   77.00      0.3865E-01
   78.00      0.3464E-01
   79.00      0.3079E-01
   80.00      0.2716E-01
   81.00      0.2378E-01
   82.00      0.2070E-01
   83.00      0.1795E-01
   84.00      0.1553E-01
   85.00      0.1345E-01
   86.00      0.1170E-01
   87.00      0.1023E-01
   88.00      0.9011E-02
   89.00      0.8005E-02
   90.00      0.7171E-02
   91.00      0.6470E-02
   92.00      0.5870E-02
   93.00      0.5342E-02
   94.00      0.4864E-02
   95.00      0.4423E-02
   96.00      0.4009E-02
   97.00      0.3617E-02
   98.00      0.3248E-02
   99.00      0.2900E-02
   100.0      0.2577E-02
   101.0      0.2280E-02
   102.0      0.2012E-02
   103.0      0.1776E-02
   104.0      0.1571E-02
   105.0      0.1397E-02
   106.0      0.1251E-02
   107.0      0.1131E-02
   108.0      0.1033E-02
   109.0      0.9549E-03
   110.0      0.8912E-03
   111.0      0.8383E-03
   112.0      0.7929E-03
   113.0      0.7521E-03
   114.0      0.7137E-03
   115.0      0.6759E-03
   116.0      0.6376E-03
   117.0      0.5978E-03
   118.0      0.5566E-03
   119.0      0.5140E-03
   120.0      0.4708E-03
   121.0      0.4274E-03
   122.0      0.3846E-03
   123.0      0.3430E-03
   124.0      0.3036E-03
   125.0      0.2669E-03
   126.0      0.2334E-03
   127.0      0.2035E-03
   128.0      0.1771E-03
   129.0      0.1543E-03
   130.0      0.1349E-03
   131.0      0.1189E-03
   132.0      0.1060E-03
   133.0      0.9588E-04
   134.0      0.8802E-04
   135.0      0.8207E-04
   136.0      0.7767E-04
   137.0      0.7447E-04
   138.0      0.7214E-04
   139.0      0.7032E-04
   140.0      0.6872E-04
   141.0      0.6716E-04
   142.0      0.6555E-04
   143.0      0.6384E-04
   144.0      0.6194E-04
   145.0      0.5979E-04
   146.0      0.5733E-04
   147.0      0.5455E-04
   148.0      0.5154E-04
   149.0      0.4838E-04
   150.0      0.4514E-04
   151.0      0.4187E-04
   152.0      0.3864E-04
   153.0      0.3549E-04
   154.0      0.3249E-04
   155.0      0.2970E-04
   156.0      0.2716E-04
   157.0      0.2487E-04
   158.0      0.2285E-04
   159.0      0.2111E-04
   160.0      0.1968E-04
   161.0      0.1857E-04
   162.0      0.1779E-04
   163.0      0.1730E-04
   164.0      0.1708E-04
   165.0      0.1710E-04
   166.0      0.1735E-04
   167.0      0.1780E-04
   168.0      0.1844E-04
   169.0      0.1923E-04
   170.0      0.2014E-04
   171.0      0.2113E-04
   172.0      0.2216E-04
   173.0      0.2319E-04
   174.0      0.2419E-04
   175.0      0.2510E-04
   176.0      0.2591E-04
   177.0      0.2657E-04
   178.0      0.2705E-04
   179.0      0.2735E-04
   180.0      0.2745E-04
 END
