# 178 angles,  1 tensor ranks for 0=projectile
@subtitle   "20O + d 2+1 as 4+;"                                                            
@legend ON
@legend x1 0.2
@legend y1 0.8
@g0 type LOGY
@yaxis ticklabel format power
@xaxis label "Scattering angle (degrees)"
@yaxis label "Cross section (mb/sr)"
@legend string   0 "Partition=  1 Excit=  1 near/far= 1"
#legend string   0 "Lab energy =   70.0000"
@s0 linestyle   1
#  Theta       sigma       iT11        T20         T21         T22         Kyy for projectile
   3.000      0.2715E+05
   4.000      0.1161E+05
   5.000       8323.    
   6.000       6849.    
   7.000       5629.    
   8.000       4457.    
   9.000       3362.    
   10.00       2401.    
   11.00       1611.    
   12.00       1003.    
   13.00       569.4    
   14.00       287.9    
   15.00       128.6    
   16.00       59.22    
   17.00       49.25    
   18.00       72.76    
   19.00       109.6    
   20.00       146.0    
   21.00       173.5    
   22.00       188.4    
   23.00       190.5    
   24.00       181.8    
   25.00       165.3    
   26.00       144.3    
   27.00       121.8    
   28.00       100.2    
   29.00       81.20    
   30.00       65.57    
   31.00       53.54    
   32.00       44.87    
   33.00       39.00    
   34.00       35.25    
   35.00       32.91    
   36.00       31.37    
   37.00       30.13    
   38.00       28.86    
   39.00       27.36    
   40.00       25.55    
   41.00       23.45    
   42.00       21.14    
   43.00       18.72    
   44.00       16.32    
   45.00       14.03    
   46.00       11.92    
   47.00       10.07    
   48.00       8.473    
   49.00       7.148    
   50.00       6.073    
   51.00       5.218    
   52.00       4.545    
   53.00       4.016    
   54.00       3.594    
   55.00       3.248    
   56.00       2.952    
   57.00       2.688    
   58.00       2.443    
   59.00       2.210    
   60.00       1.985    
   61.00       1.770    
   62.00       1.565    
   63.00       1.373    
   64.00       1.196    
   65.00       1.036    
   66.00      0.8947    
   67.00      0.7715    
   68.00      0.6661    
   69.00      0.5772    
   70.00      0.5031    
   71.00      0.4418    
   72.00      0.3910    
   73.00      0.3487    
   74.00      0.3131    
   75.00      0.2826    
   76.00      0.2558    
   77.00      0.2318    
   78.00      0.2098    
   79.00      0.1895    
   80.00      0.1706    
   81.00      0.1529    
   82.00      0.1364    
   83.00      0.1212    
   84.00      0.1073    
   85.00      0.9476E-01
   86.00      0.8354E-01
   87.00      0.7364E-01
   88.00      0.6499E-01
   89.00      0.5750E-01
   90.00      0.5108E-01
   91.00      0.4558E-01
   92.00      0.4088E-01
   93.00      0.3685E-01
   94.00      0.3336E-01
   95.00      0.3031E-01
   96.00      0.2761E-01
   97.00      0.2516E-01
   98.00      0.2293E-01
   99.00      0.2086E-01
   100.0      0.1893E-01
   101.0      0.1712E-01
   102.0      0.1541E-01
   103.0      0.1382E-01
   104.0      0.1233E-01
   105.0      0.1095E-01
   106.0      0.9686E-02
   107.0      0.8538E-02
   108.0      0.7504E-02
   109.0      0.6585E-02
   110.0      0.5775E-02
   111.0      0.5068E-02
   112.0      0.4457E-02
   113.0      0.3932E-02
   114.0      0.3483E-02
   115.0      0.3101E-02
   116.0      0.2775E-02
   117.0      0.2497E-02
   118.0      0.2257E-02
   119.0      0.2048E-02
   120.0      0.1865E-02
   121.0      0.1701E-02
   122.0      0.1552E-02
   123.0      0.1416E-02
   124.0      0.1291E-02
   125.0      0.1174E-02
   126.0      0.1064E-02
   127.0      0.9622E-03
   128.0      0.8672E-03
   129.0      0.7792E-03
   130.0      0.6982E-03
   131.0      0.6244E-03
   132.0      0.5576E-03
   133.0      0.4977E-03
   134.0      0.4446E-03
   135.0      0.3978E-03
   136.0      0.3570E-03
   137.0      0.3216E-03
   138.0      0.2910E-03
   139.0      0.2648E-03
   140.0      0.2422E-03
   141.0      0.2228E-03
   142.0      0.2059E-03
   143.0      0.1911E-03
   144.0      0.1780E-03
   145.0      0.1662E-03
   146.0      0.1555E-03
   147.0      0.1455E-03
   148.0      0.1361E-03
   149.0      0.1271E-03
   150.0      0.1185E-03
   151.0      0.1102E-03
   152.0      0.1021E-03
   153.0      0.9424E-04
   154.0      0.8659E-04
   155.0      0.7917E-04
   156.0      0.7204E-04
   157.0      0.6524E-04
   158.0      0.5884E-04
   159.0      0.5293E-04
   160.0      0.4759E-04
   161.0      0.4292E-04
   162.0      0.3902E-04
   163.0      0.3598E-04
   164.0      0.3388E-04
   165.0      0.3277E-04
   166.0      0.3270E-04
   167.0      0.3364E-04
   168.0      0.3557E-04
   169.0      0.3841E-04
   170.0      0.4202E-04
   171.0      0.4626E-04
   172.0      0.5093E-04
   173.0      0.5582E-04
   174.0      0.6069E-04
   175.0      0.6531E-04
   176.0      0.6945E-04
   177.0      0.7292E-04
   178.0      0.7552E-04
   179.0      0.7714E-04
   180.0      0.7769E-04
 END
@legend string   1 "Partition=  1 Excit=  2 near/far= 1"
#legend string   0 "Lab energy =   70.0000"
@s1 linestyle   2
#  Theta       sigma       iT11        T20         T21         T22         Kyy for projectile
   3.000       3.718    
   4.000       3.510    
   5.000       3.292    
   6.000       3.087    
   7.000       2.913    
   8.000       2.786    
   9.000       2.716    
   10.00       2.710    
   11.00       2.775    
   12.00       2.915    
   13.00       3.134    
   14.00       3.432    
   15.00       3.800    
   16.00       4.224    
   17.00       4.681    
   18.00       5.137    
   19.00       5.558    
   20.00       5.907    
   21.00       6.150    
   22.00       6.263    
   23.00       6.233    
   24.00       6.060    
   25.00       5.755    
   26.00       5.343    
   27.00       4.856    
   28.00       4.328    
   29.00       3.797    
   30.00       3.293    
   31.00       2.844    
   32.00       2.466    
   33.00       2.168    
   34.00       1.950    
   35.00       1.805    
   36.00       1.721    
   37.00       1.682    
   38.00       1.672    
   39.00       1.674    
   40.00       1.675    
   41.00       1.664    
   42.00       1.635    
   43.00       1.584    
   44.00       1.512    
   45.00       1.420    
   46.00       1.314    
   47.00       1.198    
   48.00       1.078    
   49.00      0.9592    
   50.00      0.8459    
   51.00      0.7414    
   52.00      0.6477    
   53.00      0.5658    
   54.00      0.4957    
   55.00      0.4365    
   56.00      0.3872    
   57.00      0.3459    
   58.00      0.3112    
   59.00      0.2814    
   60.00      0.2552    
   61.00      0.2315    
   62.00      0.2095    
   63.00      0.1888    
   64.00      0.1690    
   65.00      0.1502    
   66.00      0.1323    
   67.00      0.1156    
   68.00      0.1002    
   69.00      0.8628E-01
   70.00      0.7389E-01
   71.00      0.6311E-01
   72.00      0.5390E-01
   73.00      0.4618E-01
   74.00      0.3983E-01
   75.00      0.3467E-01
   76.00      0.3052E-01
   77.00      0.2719E-01
   78.00      0.2451E-01
   79.00      0.2231E-01
   80.00      0.2044E-01
   81.00      0.1881E-01
   82.00      0.1732E-01
   83.00      0.1592E-01
   84.00      0.1458E-01
   85.00      0.1327E-01
   86.00      0.1200E-01
   87.00      0.1077E-01
   88.00      0.9594E-02
   89.00      0.8487E-02
   90.00      0.7461E-02
   91.00      0.6525E-02
   92.00      0.5686E-02
   93.00      0.4945E-02
   94.00      0.4302E-02
   95.00      0.3749E-02
   96.00      0.3282E-02
   97.00      0.2888E-02
   98.00      0.2560E-02
   99.00      0.2286E-02
   100.0      0.2056E-02
   101.0      0.1862E-02
   102.0      0.1695E-02
   103.0      0.1550E-02
   104.0      0.1422E-02
   105.0      0.1306E-02
   106.0      0.1200E-02
   107.0      0.1102E-02
   108.0      0.1012E-02
   109.0      0.9282E-03
   110.0      0.8512E-03
   111.0      0.7807E-03
   112.0      0.7166E-03
   113.0      0.6589E-03
   114.0      0.6073E-03
   115.0      0.5615E-03
   116.0      0.5212E-03
   117.0      0.4856E-03
   118.0      0.4543E-03
   119.0      0.4265E-03
   120.0      0.4015E-03
   121.0      0.3787E-03
   122.0      0.3576E-03
   123.0      0.3375E-03
   124.0      0.3182E-03
   125.0      0.2992E-03
   126.0      0.2805E-03
   127.0      0.2618E-03
   128.0      0.2432E-03
   129.0      0.2248E-03
   130.0      0.2066E-03
   131.0      0.1888E-03
   132.0      0.1716E-03
   133.0      0.1551E-03
   134.0      0.1396E-03
   135.0      0.1251E-03
   136.0      0.1118E-03
   137.0      0.9975E-04
   138.0      0.8909E-04
   139.0      0.7981E-04
   140.0      0.7190E-04
   141.0      0.6533E-04
   142.0      0.6001E-04
   143.0      0.5585E-04
   144.0      0.5274E-04
   145.0      0.5054E-04
   146.0      0.4912E-04
   147.0      0.4833E-04
   148.0      0.4804E-04
   149.0      0.4810E-04
   150.0      0.4839E-04
   151.0      0.4879E-04
   152.0      0.4920E-04
   153.0      0.4952E-04
   154.0      0.4968E-04
   155.0      0.4963E-04
   156.0      0.4932E-04
   157.0      0.4873E-04
   158.0      0.4784E-04
   159.0      0.4666E-04
   160.0      0.4521E-04
   161.0      0.4350E-04
   162.0      0.4158E-04
   163.0      0.3948E-04
   164.0      0.3725E-04
   165.0      0.3493E-04
   166.0      0.3259E-04
   167.0      0.3025E-04
   168.0      0.2796E-04
   169.0      0.2577E-04
   170.0      0.2371E-04
   171.0      0.2180E-04
   172.0      0.2006E-04
   173.0      0.1851E-04
   174.0      0.1716E-04
   175.0      0.1602E-04
   176.0      0.1509E-04
   177.0      0.1437E-04
   178.0      0.1386E-04
   179.0      0.1355E-04
   180.0      0.1345E-04
 END
