# 178 angles,  1 tensor ranks for 0=projectile
@subtitle   "20O + d Ex 7.639 3-;"                                                          
@legend ON
@legend x1 0.2
@legend y1 0.8
@g0 type LOGY
@yaxis ticklabel format power
@xaxis label "Scattering angle (degrees)"
@yaxis label "Cross section (mb/sr)"
@legend string   0 "Partition=  1 Excit=  1 near/far= 1"
#legend string   0 "Lab energy =   70.0000"
@s0 linestyle   1
#  Theta       sigma       iT11        T20         T21         T22         Kyy for projectile
   3.000      0.2710E+05
   4.000      0.1161E+05
   5.000       8332.    
   6.000       6860.    
   7.000       5636.    
   8.000       4459.    
   9.000       3360.    
   10.00       2396.    
   11.00       1603.    
   12.00       994.9    
   13.00       562.3    
   14.00       282.9    
   15.00       126.1    
   16.00       59.50    
   17.00       52.14    
   18.00       77.84    
   19.00       116.4    
   20.00       153.7    
   21.00       181.6    
   22.00       196.5    
   23.00       198.2    
   24.00       188.7    
   25.00       171.4    
   26.00       149.5    
   27.00       126.3    
   28.00       104.1    
   29.00       84.58    
   30.00       68.61    
   31.00       56.38    
   32.00       47.59    
   33.00       41.66    
   34.00       37.87    
   35.00       35.48    
   36.00       33.86    
   37.00       32.51    
   38.00       31.09    
   39.00       29.39    
   40.00       27.37    
   41.00       25.04    
   42.00       22.50    
   43.00       19.87    
   44.00       17.26    
   45.00       14.80    
   46.00       12.55    
   47.00       10.58    
   48.00       8.894    
   49.00       7.504    
   50.00       6.381    
   51.00       5.492    
   52.00       4.794    
   53.00       4.245    
   54.00       3.806    
   55.00       3.443    
   56.00       3.130    
   57.00       2.847    
   58.00       2.583    
   59.00       2.331    
   60.00       2.089    
   61.00       1.856    
   62.00       1.637    
   63.00       1.432    
   64.00       1.246    
   65.00       1.079    
   66.00      0.9327    
   67.00      0.8069    
   68.00      0.7004    
   69.00      0.6115    
   70.00      0.5379    
   71.00      0.4771    
   72.00      0.4266    
   73.00      0.3843    
   74.00      0.3479    
   75.00      0.3160    
   76.00      0.2872    
   77.00      0.2608    
   78.00      0.2360    
   79.00      0.2127    
   80.00      0.1907    
   81.00      0.1701    
   82.00      0.1508    
   83.00      0.1332    
   84.00      0.1171    
   85.00      0.1028    
   86.00      0.9014E-01
   87.00      0.7913E-01
   88.00      0.6965E-01
   89.00      0.6158E-01
   90.00      0.5475E-01
   91.00      0.4897E-01
   92.00      0.4407E-01
   93.00      0.3989E-01
   94.00      0.3627E-01
   95.00      0.3308E-01
   96.00      0.3022E-01
   97.00      0.2760E-01
   98.00      0.2517E-01
   99.00      0.2289E-01
   100.0      0.2073E-01
   101.0      0.1869E-01
   102.0      0.1677E-01
   103.0      0.1497E-01
   104.0      0.1330E-01
   105.0      0.1177E-01
   106.0      0.1037E-01
   107.0      0.9121E-02
   108.0      0.8010E-02
   109.0      0.7035E-02
   110.0      0.6188E-02
   111.0      0.5460E-02
   112.0      0.4838E-02
   113.0      0.4310E-02
   114.0      0.3862E-02
   115.0      0.3480E-02
   116.0      0.3154E-02
   117.0      0.2872E-02
   118.0      0.2624E-02
   119.0      0.2403E-02
   120.0      0.2203E-02
   121.0      0.2019E-02
   122.0      0.1847E-02
   123.0      0.1685E-02
   124.0      0.1533E-02
   125.0      0.1388E-02
   126.0      0.1252E-02
   127.0      0.1124E-02
   128.0      0.1006E-02
   129.0      0.8958E-03
   130.0      0.7955E-03
   131.0      0.7048E-03
   132.0      0.6234E-03
   133.0      0.5513E-03
   134.0      0.4880E-03
   135.0      0.4329E-03
   136.0      0.3852E-03
   137.0      0.3443E-03
   138.0      0.3093E-03
   139.0      0.2794E-03
   140.0      0.2539E-03
   141.0      0.2320E-03
   142.0      0.2130E-03
   143.0      0.1966E-03
   144.0      0.1821E-03
   145.0      0.1693E-03
   146.0      0.1578E-03
   147.0      0.1474E-03
   148.0      0.1379E-03
   149.0      0.1291E-03
   150.0      0.1211E-03
   151.0      0.1135E-03
   152.0      0.1065E-03
   153.0      0.9978E-04
   154.0      0.9339E-04
   155.0      0.8722E-04
   156.0      0.8124E-04
   157.0      0.7541E-04
   158.0      0.6972E-04
   159.0      0.6419E-04
   160.0      0.5886E-04
   161.0      0.5381E-04
   162.0      0.4913E-04
   163.0      0.4494E-04
   164.0      0.4136E-04
   165.0      0.3850E-04
   166.0      0.3647E-04
   167.0      0.3533E-04
   168.0      0.3513E-04
   169.0      0.3586E-04
   170.0      0.3747E-04
   171.0      0.3985E-04
   172.0      0.4285E-04
   173.0      0.4628E-04
   174.0      0.4992E-04
   175.0      0.5353E-04
   176.0      0.5688E-04
   177.0      0.5975E-04
   178.0      0.6195E-04
   179.0      0.6333E-04
   180.0      0.6380E-04
 END
@legend string   1 "Partition=  1 Excit=  2 near/far= 1"
#legend string   0 "Lab energy =   70.0000"
@s1 linestyle   2
#  Theta       sigma       iT11        T20         T21         T22         Kyy for projectile
   3.000       16.80    
   4.000       19.47    
   5.000       22.30    
   6.000       25.00    
   7.000       27.39    
   8.000       29.43    
   9.000       31.22    
   10.00       32.93    
   11.00       34.72    
   12.00       36.71    
   13.00       38.91    
   14.00       41.22    
   15.00       43.41    
   16.00       45.21    
   17.00       46.34    
   18.00       46.56    
   19.00       45.72    
   20.00       43.81    
   21.00       40.93    
   22.00       37.28    
   23.00       33.17    
   24.00       28.90    
   25.00       24.77    
   26.00       21.07    
   27.00       17.97    
   28.00       15.58    
   29.00       13.93    
   30.00       12.96    
   31.00       12.56    
   32.00       12.56    
   33.00       12.81    
   34.00       13.15    
   35.00       13.44    
   36.00       13.57    
   37.00       13.50    
   38.00       13.18    
   39.00       12.64    
   40.00       11.91    
   41.00       11.04    
   42.00       10.09    
   43.00       9.122    
   44.00       8.180    
   45.00       7.308    
   46.00       6.532    
   47.00       5.866    
   48.00       5.309    
   49.00       4.853    
   50.00       4.482    
   51.00       4.177    
   52.00       3.918    
   53.00       3.687    
   54.00       3.467    
   55.00       3.248    
   56.00       3.023    
   57.00       2.790    
   58.00       2.548    
   59.00       2.302    
   60.00       2.056    
   61.00       1.816    
   62.00       1.588    
   63.00       1.376    
   64.00       1.185    
   65.00       1.015    
   66.00      0.8695    
   67.00      0.7463    
   68.00      0.6443    
   69.00      0.5613    
   70.00      0.4944    
   71.00      0.4406    
   72.00      0.3971    
   73.00      0.3612    
   74.00      0.3308    
   75.00      0.3039    
   76.00      0.2792    
   77.00      0.2559    
   78.00      0.2335    
   79.00      0.2116    
   80.00      0.1905    
   81.00      0.1702    
   82.00      0.1510    
   83.00      0.1331    
   84.00      0.1168    
   85.00      0.1021    
   86.00      0.8913E-01
   87.00      0.7794E-01
   88.00      0.6838E-01
   89.00      0.6032E-01
   90.00      0.5359E-01
   91.00      0.4799E-01
   92.00      0.4331E-01
   93.00      0.3936E-01
   94.00      0.3597E-01
   95.00      0.3297E-01
   96.00      0.3027E-01
   97.00      0.2777E-01
   98.00      0.2542E-01
   99.00      0.2318E-01
   100.0      0.2105E-01
   101.0      0.1902E-01
   102.0      0.1710E-01
   103.0      0.1531E-01
   104.0      0.1368E-01
   105.0      0.1220E-01
   106.0      0.1089E-01
   107.0      0.9749E-02
   108.0      0.8767E-02
   109.0      0.7939E-02
   110.0      0.7249E-02
   111.0      0.6680E-02
   112.0      0.6210E-02
   113.0      0.5821E-02
   114.0      0.5494E-02
   115.0      0.5213E-02
   116.0      0.4959E-02
   117.0      0.4719E-02
   118.0      0.4482E-02
   119.0      0.4242E-02
   120.0      0.3995E-02
   121.0      0.3740E-02
   122.0      0.3478E-02
   123.0      0.3210E-02
   124.0      0.2942E-02
   125.0      0.2676E-02
   126.0      0.2417E-02
   127.0      0.2169E-02
   128.0      0.1934E-02
   129.0      0.1715E-02
   130.0      0.1515E-02
   131.0      0.1336E-02
   132.0      0.1180E-02
   133.0      0.1047E-02
   134.0      0.9350E-03
   135.0      0.8427E-03
   136.0      0.7680E-03
   137.0      0.7089E-03
   138.0      0.6629E-03
   139.0      0.6272E-03
   140.0      0.5995E-03
   141.0      0.5778E-03
   142.0      0.5612E-03
   143.0      0.5484E-03
   144.0      0.5379E-03
   145.0      0.5276E-03
   146.0      0.5157E-03
   147.0      0.5011E-03
   148.0      0.4841E-03
   149.0      0.4657E-03
   150.0      0.4465E-03
   151.0      0.4271E-03
   152.0      0.4073E-03
   153.0      0.3868E-03
   154.0      0.3658E-03
   155.0      0.3445E-03
   156.0      0.3235E-03
   157.0      0.3030E-03
   158.0      0.2835E-03
   159.0      0.2652E-03
   160.0      0.2485E-03
   161.0      0.2337E-03
   162.0      0.2206E-03
   163.0      0.2090E-03
   164.0      0.1985E-03
   165.0      0.1892E-03
   166.0      0.1809E-03
   167.0      0.1740E-03
   168.0      0.1686E-03
   169.0      0.1646E-03
   170.0      0.1620E-03
   171.0      0.1605E-03
   172.0      0.1600E-03
   173.0      0.1603E-03
   174.0      0.1612E-03
   175.0      0.1621E-03
   176.0      0.1626E-03
   177.0      0.1625E-03
   178.0      0.1619E-03
   179.0      0.1612E-03
   180.0      0.1609E-03
 END
