# 178 angles,  1 tensor ranks for 0=projectile
@subtitle   "p+O20 with CH89;"                                                              
@legend ON
@legend x1 0.2
@legend y1 0.8
@g0 type LOGY
@yaxis ticklabel format power
@xaxis label "Scattering angle (degrees)"
@yaxis label "Cross section (mb/sr)"
@legend string   0 "Partition=  1 Excit=  1 near/far= 1"
#legend string   0 "Lab energy =   35.0000"
@s0 linestyle   1
#  Theta       sigma       iT11        T20         T21         T22         Kyy for projectile
   3.000      0.1304E+06
   4.000      0.3734E+05
   5.000      0.1430E+05
   6.000       6946.    
   7.000       4180.    
   8.000       3002.    
   9.000       2437.    
   10.00       2125.    
   11.00       1923.    
   12.00       1768.    
   13.00       1634.    
   14.00       1508.    
   15.00       1387.    
   16.00       1268.    
   17.00       1151.    
   18.00       1038.    
   19.00       928.9    
   20.00       824.7    
   21.00       726.3    
   22.00       634.4    
   23.00       549.3    
   24.00       471.4    
   25.00       400.8    
   26.00       337.6    
   27.00       281.6    
   28.00       232.4    
   29.00       189.9    
   30.00       153.6    
   31.00       123.0    
   32.00       97.58    
   33.00       76.87    
   34.00       60.33    
   35.00       47.43    
   36.00       37.66    
   37.00       30.54    
   38.00       25.62    
   39.00       22.48    
   40.00       20.75    
   41.00       20.10    
   42.00       20.22    
   43.00       20.88    
   44.00       21.84    
   45.00       22.96    
   46.00       24.07    
   47.00       25.08    
   48.00       25.91    
   49.00       26.51    
   50.00       26.84    
   51.00       26.89    
   52.00       26.66    
   53.00       26.17    
   54.00       25.43    
   55.00       24.48    
   56.00       23.35    
   57.00       22.07    
   58.00       20.68    
   59.00       19.22    
   60.00       17.71    
   61.00       16.19    
   62.00       14.68    
   63.00       13.21    
   64.00       11.80    
   65.00       10.46    
   66.00       9.205    
   67.00       8.048    
   68.00       6.993    
   69.00       6.043    
   70.00       5.196    
   71.00       4.453    
   72.00       3.809    
   73.00       3.258    
   74.00       2.795    
   75.00       2.411    
   76.00       2.100    
   77.00       1.854    
   78.00       1.664    
   79.00       1.522    
   80.00       1.420    
   81.00       1.353    
   82.00       1.311    
   83.00       1.291    
   84.00       1.285    
   85.00       1.289    
   86.00       1.300    
   87.00       1.313    
   88.00       1.326    
   89.00       1.336    
   90.00       1.342    
   91.00       1.342    
   92.00       1.335    
   93.00       1.321    
   94.00       1.300    
   95.00       1.272    
   96.00       1.237    
   97.00       1.196    
   98.00       1.150    
   99.00       1.099    
   100.0       1.045    
   101.0      0.9869    
   102.0      0.9271    
   103.0      0.8661    
   104.0      0.8046    
   105.0      0.7435    
   106.0      0.6833    
   107.0      0.6248    
   108.0      0.5684    
   109.0      0.5147    
   110.0      0.4639    
   111.0      0.4164    
   112.0      0.3723    
   113.0      0.3319    
   114.0      0.2952    
   115.0      0.2622    
   116.0      0.2329    
   117.0      0.2072    
   118.0      0.1850    
   119.0      0.1660    
   120.0      0.1501    
   121.0      0.1371    
   122.0      0.1267    
   123.0      0.1187    
   124.0      0.1128    
   125.0      0.1088    
   126.0      0.1063    
   127.0      0.1052    
   128.0      0.1052    
   129.0      0.1060    
   130.0      0.1075    
   131.0      0.1094    
   132.0      0.1115    
   133.0      0.1138    
   134.0      0.1160    
   135.0      0.1181    
   136.0      0.1198    
   137.0      0.1212    
   138.0      0.1223    
   139.0      0.1228    
   140.0      0.1229    
   141.0      0.1225    
   142.0      0.1217    
   143.0      0.1204    
   144.0      0.1187    
   145.0      0.1167    
   146.0      0.1144    
   147.0      0.1119    
   148.0      0.1092    
   149.0      0.1065    
   150.0      0.1038    
   151.0      0.1011    
   152.0      0.9865E-01
   153.0      0.9638E-01
   154.0      0.9440E-01
   155.0      0.9277E-01
   156.0      0.9151E-01
   157.0      0.9068E-01
   158.0      0.9030E-01
   159.0      0.9038E-01
   160.0      0.9094E-01
   161.0      0.9195E-01
   162.0      0.9341E-01
   163.0      0.9529E-01
   164.0      0.9756E-01
   165.0      0.1002    
   166.0      0.1030    
   167.0      0.1061    
   168.0      0.1094    
   169.0      0.1128    
   170.0      0.1161    
   171.0      0.1194    
   172.0      0.1226    
   173.0      0.1256    
   174.0      0.1284    
   175.0      0.1308    
   176.0      0.1329    
   177.0      0.1345    
   178.0      0.1357    
   179.0      0.1365    
   180.0      0.1367    
 END
