# 178 angles,  1 tensor ranks for 0=projectile
@subtitle   "20O + d 3- as 4+;"                                                             
@legend ON
@legend x1 0.2
@legend y1 0.8
@g0 type LOGY
@yaxis ticklabel format power
@xaxis label "Scattering angle (degrees)"
@yaxis label "Cross section (mb/sr)"
@legend string   0 "Partition=  1 Excit=  1 near/far= 1"
#legend string   0 "Lab energy =   70.0000"
@s0 linestyle   1
#  Theta       sigma       iT11        T20         T21         T22         Kyy for projectile
   3.000      0.2710E+05
   4.000      0.1161E+05
   5.000       8332.    
   6.000       6860.    
   7.000       5636.    
   8.000       4459.    
   9.000       3360.    
   10.00       2396.    
   11.00       1603.    
   12.00       994.9    
   13.00       562.3    
   14.00       282.9    
   15.00       126.1    
   16.00       59.50    
   17.00       52.14    
   18.00       77.84    
   19.00       116.4    
   20.00       153.7    
   21.00       181.6    
   22.00       196.5    
   23.00       198.2    
   24.00       188.7    
   25.00       171.4    
   26.00       149.5    
   27.00       126.3    
   28.00       104.1    
   29.00       84.58    
   30.00       68.61    
   31.00       56.38    
   32.00       47.59    
   33.00       41.66    
   34.00       37.87    
   35.00       35.48    
   36.00       33.86    
   37.00       32.51    
   38.00       31.09    
   39.00       29.39    
   40.00       27.37    
   41.00       25.04    
   42.00       22.50    
   43.00       19.87    
   44.00       17.26    
   45.00       14.80    
   46.00       12.55    
   47.00       10.58    
   48.00       8.894    
   49.00       7.504    
   50.00       6.381    
   51.00       5.492    
   52.00       4.794    
   53.00       4.245    
   54.00       3.806    
   55.00       3.443    
   56.00       3.130    
   57.00       2.847    
   58.00       2.583    
   59.00       2.331    
   60.00       2.089    
   61.00       1.856    
   62.00       1.637    
   63.00       1.432    
   64.00       1.246    
   65.00       1.079    
   66.00      0.9327    
   67.00      0.8069    
   68.00      0.7004    
   69.00      0.6115    
   70.00      0.5379    
   71.00      0.4771    
   72.00      0.4266    
   73.00      0.3843    
   74.00      0.3479    
   75.00      0.3160    
   76.00      0.2872    
   77.00      0.2608    
   78.00      0.2360    
   79.00      0.2127    
   80.00      0.1907    
   81.00      0.1701    
   82.00      0.1508    
   83.00      0.1332    
   84.00      0.1171    
   85.00      0.1028    
   86.00      0.9014E-01
   87.00      0.7913E-01
   88.00      0.6965E-01
   89.00      0.6158E-01
   90.00      0.5475E-01
   91.00      0.4897E-01
   92.00      0.4407E-01
   93.00      0.3989E-01
   94.00      0.3627E-01
   95.00      0.3308E-01
   96.00      0.3022E-01
   97.00      0.2760E-01
   98.00      0.2517E-01
   99.00      0.2289E-01
   100.0      0.2073E-01
   101.0      0.1869E-01
   102.0      0.1677E-01
   103.0      0.1497E-01
   104.0      0.1330E-01
   105.0      0.1177E-01
   106.0      0.1037E-01
   107.0      0.9121E-02
   108.0      0.8010E-02
   109.0      0.7035E-02
   110.0      0.6188E-02
   111.0      0.5460E-02
   112.0      0.4838E-02
   113.0      0.4310E-02
   114.0      0.3862E-02
   115.0      0.3480E-02
   116.0      0.3154E-02
   117.0      0.2872E-02
   118.0      0.2624E-02
   119.0      0.2403E-02
   120.0      0.2203E-02
   121.0      0.2019E-02
   122.0      0.1847E-02
   123.0      0.1685E-02
   124.0      0.1533E-02
   125.0      0.1388E-02
   126.0      0.1252E-02
   127.0      0.1124E-02
   128.0      0.1006E-02
   129.0      0.8958E-03
   130.0      0.7955E-03
   131.0      0.7048E-03
   132.0      0.6234E-03
   133.0      0.5513E-03
   134.0      0.4880E-03
   135.0      0.4329E-03
   136.0      0.3852E-03
   137.0      0.3443E-03
   138.0      0.3093E-03
   139.0      0.2794E-03
   140.0      0.2539E-03
   141.0      0.2320E-03
   142.0      0.2130E-03
   143.0      0.1966E-03
   144.0      0.1821E-03
   145.0      0.1693E-03
   146.0      0.1578E-03
   147.0      0.1474E-03
   148.0      0.1379E-03
   149.0      0.1291E-03
   150.0      0.1211E-03
   151.0      0.1135E-03
   152.0      0.1065E-03
   153.0      0.9978E-04
   154.0      0.9339E-04
   155.0      0.8722E-04
   156.0      0.8124E-04
   157.0      0.7541E-04
   158.0      0.6972E-04
   159.0      0.6419E-04
   160.0      0.5886E-04
   161.0      0.5381E-04
   162.0      0.4913E-04
   163.0      0.4494E-04
   164.0      0.4136E-04
   165.0      0.3850E-04
   166.0      0.3647E-04
   167.0      0.3533E-04
   168.0      0.3513E-04
   169.0      0.3586E-04
   170.0      0.3747E-04
   171.0      0.3985E-04
   172.0      0.4285E-04
   173.0      0.4628E-04
   174.0      0.4992E-04
   175.0      0.5353E-04
   176.0      0.5688E-04
   177.0      0.5975E-04
   178.0      0.6195E-04
   179.0      0.6333E-04
   180.0      0.6380E-04
 END
@legend string   1 "Partition=  1 Excit=  2 near/far= 1"
#legend string   0 "Lab energy =   70.0000"
@s1 linestyle   2
#  Theta       sigma       iT11        T20         T21         T22         Kyy for projectile
   3.000       20.37    
   4.000       19.41    
   5.000       18.40    
   6.000       17.43    
   7.000       16.61    
   8.000       15.99    
   9.000       15.64    
   10.00       15.58    
   11.00       15.83    
   12.00       16.42    
   13.00       17.36    
   14.00       18.65    
   15.00       20.24    
   16.00       22.09    
   17.00       24.09    
   18.00       26.09    
   19.00       27.95    
   20.00       29.50    
   21.00       30.58    
   22.00       31.08    
   23.00       30.93    
   24.00       30.12    
   25.00       28.69    
   26.00       26.75    
   27.00       24.43    
   28.00       21.90    
   29.00       19.32    
   30.00       16.85    
   31.00       14.62    
   32.00       12.73    
   33.00       11.22    
   34.00       10.11    
   35.00       9.365    
   36.00       8.939    
   37.00       8.756    
   38.00       8.736    
   39.00       8.797    
   40.00       8.867    
   41.00       8.888    
   42.00       8.818    
   43.00       8.634    
   44.00       8.329    
   45.00       7.912    
   46.00       7.401    
   47.00       6.823    
   48.00       6.205    
   49.00       5.576    
   50.00       4.962    
   51.00       4.383    
   52.00       3.853    
   53.00       3.381    
   54.00       2.972    
   55.00       2.622    
   56.00       2.328    
   57.00       2.082    
   58.00       1.876    
   59.00       1.700    
   60.00       1.548    
   61.00       1.411    
   62.00       1.286    
   63.00       1.169    
   64.00       1.056    
   65.00      0.9479    
   66.00      0.8439    
   67.00      0.7449    
   68.00      0.6517    
   69.00      0.5654    
   70.00      0.4870    
   71.00      0.4171    
   72.00      0.3560    
   73.00      0.3038    
   74.00      0.2599    
   75.00      0.2237    
   76.00      0.1944    
   77.00      0.1709    
   78.00      0.1521    
   79.00      0.1372    
   80.00      0.1251    
   81.00      0.1150    
   82.00      0.1063    
   83.00      0.9844E-01
   84.00      0.9109E-01
   85.00      0.8401E-01
   86.00      0.7708E-01
   87.00      0.7027E-01
   88.00      0.6360E-01
   89.00      0.5714E-01
   90.00      0.5096E-01
   91.00      0.4515E-01
   92.00      0.3978E-01
   93.00      0.3490E-01
   94.00      0.3054E-01
   95.00      0.2670E-01
   96.00      0.2338E-01
   97.00      0.2055E-01
   98.00      0.1815E-01
   99.00      0.1615E-01
   100.0      0.1448E-01
   101.0      0.1309E-01
   102.0      0.1192E-01
   103.0      0.1093E-01
   104.0      0.1008E-01
   105.0      0.9339E-02
   106.0      0.8673E-02
   107.0      0.8067E-02
   108.0      0.7507E-02
   109.0      0.6986E-02
   110.0      0.6497E-02
   111.0      0.6041E-02
   112.0      0.5615E-02
   113.0      0.5221E-02
   114.0      0.4860E-02
   115.0      0.4531E-02
   116.0      0.4234E-02
   117.0      0.3969E-02
   118.0      0.3733E-02
   119.0      0.3524E-02
   120.0      0.3338E-02
   121.0      0.3173E-02
   122.0      0.3024E-02
   123.0      0.2888E-02
   124.0      0.2762E-02
   125.0      0.2643E-02
   126.0      0.2528E-02
   127.0      0.2415E-02
   128.0      0.2302E-02
   129.0      0.2190E-02
   130.0      0.2077E-02
   131.0      0.1963E-02
   132.0      0.1850E-02
   133.0      0.1737E-02
   134.0      0.1625E-02
   135.0      0.1516E-02
   136.0      0.1411E-02
   137.0      0.1311E-02
   138.0      0.1216E-02
   139.0      0.1128E-02
   140.0      0.1047E-02
   141.0      0.9738E-03
   142.0      0.9086E-03
   143.0      0.8516E-03
   144.0      0.8027E-03
   145.0      0.7617E-03
   146.0      0.7283E-03
   147.0      0.7021E-03
   148.0      0.6825E-03
   149.0      0.6687E-03
   150.0      0.6602E-03
   151.0      0.6561E-03
   152.0      0.6556E-03
   153.0      0.6579E-03
   154.0      0.6624E-03
   155.0      0.6682E-03
   156.0      0.6748E-03
   157.0      0.6813E-03
   158.0      0.6874E-03
   159.0      0.6926E-03
   160.0      0.6964E-03
   161.0      0.6987E-03
   162.0      0.6993E-03
   163.0      0.6981E-03
   164.0      0.6952E-03
   165.0      0.6906E-03
   166.0      0.6846E-03
   167.0      0.6773E-03
   168.0      0.6690E-03
   169.0      0.6601E-03
   170.0      0.6509E-03
   171.0      0.6415E-03
   172.0      0.6324E-03
   173.0      0.6238E-03
   174.0      0.6158E-03
   175.0      0.6087E-03
   176.0      0.6027E-03
   177.0      0.5980E-03
   178.0      0.5946E-03
   179.0      0.5925E-03
   180.0      0.5918E-03
 END
