# 178 angles,  1 tensor ranks for 0=projectile
@subtitle   "20O + d Ex 6.5 2+ as 4+;"                                                      
@legend ON
@legend x1 0.2
@legend y1 0.8
@g0 type LOGY
@yaxis ticklabel format power
@xaxis label "Scattering angle (degrees)"
@yaxis label "Cross section (mb/sr)"
@legend string   0 "Partition=  1 Excit=  1 near/far= 1"
#legend string   0 "Lab energy =   70.0000"
@s0 linestyle   1
#  Theta       sigma       iT11        T20         T21         T22         Kyy for projectile
   3.000      0.2710E+05
   4.000      0.1161E+05
   5.000       8332.    
   6.000       6860.    
   7.000       5636.    
   8.000       4459.    
   9.000       3360.    
   10.00       2396.    
   11.00       1603.    
   12.00       994.9    
   13.00       562.3    
   14.00       282.9    
   15.00       126.1    
   16.00       59.50    
   17.00       52.14    
   18.00       77.84    
   19.00       116.4    
   20.00       153.7    
   21.00       181.6    
   22.00       196.5    
   23.00       198.2    
   24.00       188.7    
   25.00       171.4    
   26.00       149.5    
   27.00       126.3    
   28.00       104.1    
   29.00       84.58    
   30.00       68.61    
   31.00       56.38    
   32.00       47.59    
   33.00       41.66    
   34.00       37.87    
   35.00       35.48    
   36.00       33.86    
   37.00       32.51    
   38.00       31.09    
   39.00       29.39    
   40.00       27.37    
   41.00       25.04    
   42.00       22.50    
   43.00       19.87    
   44.00       17.26    
   45.00       14.80    
   46.00       12.55    
   47.00       10.58    
   48.00       8.894    
   49.00       7.504    
   50.00       6.381    
   51.00       5.492    
   52.00       4.794    
   53.00       4.245    
   54.00       3.806    
   55.00       3.443    
   56.00       3.130    
   57.00       2.847    
   58.00       2.583    
   59.00       2.331    
   60.00       2.089    
   61.00       1.856    
   62.00       1.637    
   63.00       1.432    
   64.00       1.246    
   65.00       1.079    
   66.00      0.9327    
   67.00      0.8069    
   68.00      0.7004    
   69.00      0.6115    
   70.00      0.5379    
   71.00      0.4771    
   72.00      0.4266    
   73.00      0.3843    
   74.00      0.3479    
   75.00      0.3160    
   76.00      0.2872    
   77.00      0.2608    
   78.00      0.2360    
   79.00      0.2127    
   80.00      0.1907    
   81.00      0.1701    
   82.00      0.1508    
   83.00      0.1332    
   84.00      0.1171    
   85.00      0.1028    
   86.00      0.9014E-01
   87.00      0.7913E-01
   88.00      0.6965E-01
   89.00      0.6158E-01
   90.00      0.5475E-01
   91.00      0.4897E-01
   92.00      0.4407E-01
   93.00      0.3989E-01
   94.00      0.3627E-01
   95.00      0.3308E-01
   96.00      0.3022E-01
   97.00      0.2760E-01
   98.00      0.2517E-01
   99.00      0.2289E-01
   100.0      0.2073E-01
   101.0      0.1869E-01
   102.0      0.1677E-01
   103.0      0.1497E-01
   104.0      0.1330E-01
   105.0      0.1177E-01
   106.0      0.1037E-01
   107.0      0.9121E-02
   108.0      0.8010E-02
   109.0      0.7035E-02
   110.0      0.6188E-02
   111.0      0.5460E-02
   112.0      0.4838E-02
   113.0      0.4310E-02
   114.0      0.3862E-02
   115.0      0.3480E-02
   116.0      0.3154E-02
   117.0      0.2872E-02
   118.0      0.2624E-02
   119.0      0.2403E-02
   120.0      0.2203E-02
   121.0      0.2019E-02
   122.0      0.1847E-02
   123.0      0.1685E-02
   124.0      0.1533E-02
   125.0      0.1388E-02
   126.0      0.1252E-02
   127.0      0.1124E-02
   128.0      0.1006E-02
   129.0      0.8958E-03
   130.0      0.7955E-03
   131.0      0.7048E-03
   132.0      0.6234E-03
   133.0      0.5513E-03
   134.0      0.4880E-03
   135.0      0.4329E-03
   136.0      0.3852E-03
   137.0      0.3443E-03
   138.0      0.3093E-03
   139.0      0.2794E-03
   140.0      0.2539E-03
   141.0      0.2320E-03
   142.0      0.2130E-03
   143.0      0.1966E-03
   144.0      0.1821E-03
   145.0      0.1693E-03
   146.0      0.1578E-03
   147.0      0.1474E-03
   148.0      0.1379E-03
   149.0      0.1291E-03
   150.0      0.1211E-03
   151.0      0.1135E-03
   152.0      0.1065E-03
   153.0      0.9978E-04
   154.0      0.9339E-04
   155.0      0.8722E-04
   156.0      0.8124E-04
   157.0      0.7541E-04
   158.0      0.6972E-04
   159.0      0.6419E-04
   160.0      0.5886E-04
   161.0      0.5381E-04
   162.0      0.4913E-04
   163.0      0.4494E-04
   164.0      0.4136E-04
   165.0      0.3850E-04
   166.0      0.3647E-04
   167.0      0.3533E-04
   168.0      0.3513E-04
   169.0      0.3586E-04
   170.0      0.3747E-04
   171.0      0.3985E-04
   172.0      0.4285E-04
   173.0      0.4628E-04
   174.0      0.4992E-04
   175.0      0.5353E-04
   176.0      0.5688E-04
   177.0      0.5975E-04
   178.0      0.6195E-04
   179.0      0.6333E-04
   180.0      0.6380E-04
 END
@legend string   1 "Partition=  1 Excit=  2 near/far= 1"
#legend string   0 "Lab energy =   70.0000"
@s1 linestyle   2
#  Theta       sigma       iT11        T20         T21         T22         Kyy for projectile
   3.000       4.225    
   4.000       4.022    
   5.000       3.802    
   6.000       3.584    
   7.000       3.387    
   8.000       3.225    
   9.000       3.108    
   10.00       3.046    
   11.00       3.044    
   12.00       3.107    
   13.00       3.240    
   14.00       3.443    
   15.00       3.709    
   16.00       4.028    
   17.00       4.380    
   18.00       4.741    
   19.00       5.080    
   20.00       5.368    
   21.00       5.575    
   22.00       5.679    
   23.00       5.665    
   24.00       5.531    
   25.00       5.282    
   26.00       4.937    
   27.00       4.520    
   28.00       4.059    
   29.00       3.586    
   30.00       3.129    
   31.00       2.714    
   32.00       2.356    
   33.00       2.069    
   34.00       1.853    
   35.00       1.707    
   36.00       1.621    
   37.00       1.582    
   38.00       1.576    
   39.00       1.588    
   40.00       1.604    
   41.00       1.613    
   42.00       1.607    
   43.00       1.581    
   44.00       1.534    
   45.00       1.465    
   46.00       1.378    
   47.00       1.278    
   48.00       1.169    
   49.00       1.057    
   50.00      0.9459    
   51.00      0.8400    
   52.00      0.7422    
   53.00      0.6544    
   54.00      0.5774    
   55.00      0.5111    
   56.00      0.4549    
   57.00      0.4076    
   58.00      0.3677    
   59.00      0.3336    
   60.00      0.3040    
   61.00      0.2776    
   62.00      0.2533    
   63.00      0.2306    
   64.00      0.2088    
   65.00      0.1879    
   66.00      0.1678    
   67.00      0.1485    
   68.00      0.1303    
   69.00      0.1134    
   70.00      0.9787E-01
   71.00      0.8395E-01
   72.00      0.7170E-01
   73.00      0.6112E-01
   74.00      0.5215E-01
   75.00      0.4470E-01
   76.00      0.3860E-01
   77.00      0.3368E-01
   78.00      0.2974E-01
   79.00      0.2659E-01
   80.00      0.2405E-01
   81.00      0.2196E-01
   82.00      0.2020E-01
   83.00      0.1864E-01
   84.00      0.1722E-01
   85.00      0.1587E-01
   86.00      0.1457E-01
   87.00      0.1331E-01
   88.00      0.1207E-01
   89.00      0.1087E-01
   90.00      0.9725E-02
   91.00      0.8640E-02
   92.00      0.7631E-02
   93.00      0.6708E-02
   94.00      0.5876E-02
   95.00      0.5139E-02
   96.00      0.4495E-02
   97.00      0.3939E-02
   98.00      0.3466E-02
   99.00      0.3065E-02
   100.0      0.2729E-02
   101.0      0.2446E-02
   102.0      0.2207E-02
   103.0      0.2004E-02
   104.0      0.1829E-02
   105.0      0.1676E-02
   106.0      0.1540E-02
   107.0      0.1417E-02
   108.0      0.1304E-02
   109.0      0.1200E-02
   110.0      0.1104E-02
   111.0      0.1014E-02
   112.0      0.9313E-03
   113.0      0.8554E-03
   114.0      0.7864E-03
   115.0      0.7242E-03
   116.0      0.6686E-03
   117.0      0.6196E-03
   118.0      0.5765E-03
   119.0      0.5389E-03
   120.0      0.5061E-03
   121.0      0.4774E-03
   122.0      0.4521E-03
   123.0      0.4294E-03
   124.0      0.4086E-03
   125.0      0.3892E-03
   126.0      0.3706E-03
   127.0      0.3523E-03
   128.0      0.3341E-03
   129.0      0.3158E-03
   130.0      0.2973E-03
   131.0      0.2786E-03
   132.0      0.2598E-03
   133.0      0.2409E-03
   134.0      0.2222E-03
   135.0      0.2039E-03
   136.0      0.1863E-03
   137.0      0.1693E-03
   138.0      0.1534E-03
   139.0      0.1386E-03
   140.0      0.1251E-03
   141.0      0.1129E-03
   142.0      0.1021E-03
   143.0      0.9275E-04
   144.0      0.8481E-04
   145.0      0.7824E-04
   146.0      0.7297E-04
   147.0      0.6891E-04
   148.0      0.6594E-04
   149.0      0.6393E-04
   150.0      0.6276E-04
   151.0      0.6227E-04
   152.0      0.6233E-04
   153.0      0.6279E-04
   154.0      0.6353E-04
   155.0      0.6441E-04
   156.0      0.6531E-04
   157.0      0.6614E-04
   158.0      0.6680E-04
   159.0      0.6721E-04
   160.0      0.6733E-04
   161.0      0.6712E-04
   162.0      0.6656E-04
   163.0      0.6565E-04
   164.0      0.6440E-04
   165.0      0.6285E-04
   166.0      0.6102E-04
   167.0      0.5899E-04
   168.0      0.5679E-04
   169.0      0.5450E-04
   170.0      0.5217E-04
   171.0      0.4987E-04
   172.0      0.4765E-04
   173.0      0.4557E-04
   174.0      0.4368E-04
   175.0      0.4201E-04
   176.0      0.4060E-04
   177.0      0.3948E-04
   178.0      0.3867E-04
   179.0      0.3818E-04
   180.0      0.3802E-04
 END
