# 178 angles,  1 tensor ranks for 0=projectile
@subtitle   "20O + d gs with DA1p OMP;"                                                     
@legend ON
@legend x1 0.2
@legend y1 0.8
@g0 type LOGY
@yaxis ticklabel format power
@xaxis label "Scattering angle (degrees)"
@yaxis label "Cross section (mb/sr)"
@legend string   0 "Partition=  1 Excit=  1 near/far= 1"
#legend string   0 "Lab energy =   70.0000"
@s0 linestyle   1
#  Theta       sigma       iT11        T20         T21         T22         Kyy for projectile
   3.000      0.2752E+05
   4.000      0.1097E+05
   5.000       7496.    
   6.000       6121.    
   7.000       5095.    
   8.000       4129.    
   9.000       3214.    
   10.00       2388.    
   11.00       1683.    
   12.00       1116.    
   13.00       687.5    
   14.00       386.8    
   15.00       195.2    
   16.00       89.94    
   17.00       47.70    
   18.00       46.78    
   19.00       68.89    
   20.00       99.86    
   21.00       129.8    
   22.00       152.7    
   23.00       165.8    
   24.00       168.8    
   25.00       163.0    
   26.00       150.6    
   27.00       134.1    
   28.00       115.8    
   29.00       97.64    
   30.00       81.13    
   31.00       67.07    
   32.00       55.84    
   33.00       47.39    
   34.00       41.41    
   35.00       37.43    
   36.00       34.89    
   37.00       33.29    
   38.00       32.17    
   39.00       31.17    
   40.00       30.06    
   41.00       28.71    
   42.00       27.06    
   43.00       25.13    
   44.00       22.99    
   45.00       20.73    
   46.00       18.44    
   47.00       16.22    
   48.00       14.12    
   49.00       12.22    
   50.00       10.53    
   51.00       9.073    
   52.00       7.843    
   53.00       6.823    
   54.00       5.987    
   55.00       5.307    
   56.00       4.751    
   57.00       4.292    
   58.00       3.904    
   59.00       3.566    
   60.00       3.264    
   61.00       2.984    
   62.00       2.721    
   63.00       2.470    
   64.00       2.229    
   65.00       2.000    
   66.00       1.783    
   67.00       1.580    
   68.00       1.393    
   69.00       1.222    
   70.00       1.069    
   71.00      0.9336    
   72.00      0.8150    
   73.00      0.7125    
   74.00      0.6246    
   75.00      0.5499    
   76.00      0.4865    
   77.00      0.4329    
   78.00      0.3872    
   79.00      0.3480    
   80.00      0.3141    
   81.00      0.2843    
   82.00      0.2578    
   83.00      0.2338    
   84.00      0.2119    
   85.00      0.1917    
   86.00      0.1730    
   87.00      0.1557    
   88.00      0.1396    
   89.00      0.1247    
   90.00      0.1111    
   91.00      0.9871E-01
   92.00      0.8747E-01
   93.00      0.7737E-01
   94.00      0.6838E-01
   95.00      0.6043E-01
   96.00      0.5344E-01
   97.00      0.4735E-01
   98.00      0.4205E-01
   99.00      0.3747E-01
   100.0      0.3350E-01
   101.0      0.3007E-01
   102.0      0.2709E-01
   103.0      0.2450E-01
   104.0      0.2222E-01
   105.0      0.2021E-01
   106.0      0.1841E-01
   107.0      0.1679E-01
   108.0      0.1532E-01
   109.0      0.1398E-01
   110.0      0.1274E-01
   111.0      0.1160E-01
   112.0      0.1054E-01
   113.0      0.9563E-02
   114.0      0.8656E-02
   115.0      0.7819E-02
   116.0      0.7049E-02
   117.0      0.6344E-02
   118.0      0.5702E-02
   119.0      0.5120E-02
   120.0      0.4596E-02
   121.0      0.4127E-02
   122.0      0.3709E-02
   123.0      0.3339E-02
   124.0      0.3013E-02
   125.0      0.2727E-02
   126.0      0.2475E-02
   127.0      0.2255E-02
   128.0      0.2062E-02
   129.0      0.1892E-02
   130.0      0.1741E-02
   131.0      0.1605E-02
   132.0      0.1483E-02
   133.0      0.1371E-02
   134.0      0.1268E-02
   135.0      0.1172E-02
   136.0      0.1082E-02
   137.0      0.9972E-03
   138.0      0.9171E-03
   139.0      0.8418E-03
   140.0      0.7713E-03
   141.0      0.7058E-03
   142.0      0.6457E-03
   143.0      0.5911E-03
   144.0      0.5421E-03
   145.0      0.4987E-03
   146.0      0.4608E-03
   147.0      0.4278E-03
   148.0      0.3993E-03
   149.0      0.3745E-03
   150.0      0.3526E-03
   151.0      0.3327E-03
   152.0      0.3140E-03
   153.0      0.2956E-03
   154.0      0.2769E-03
   155.0      0.2575E-03
   156.0      0.2370E-03
   157.0      0.2157E-03
   158.0      0.1937E-03
   159.0      0.1715E-03
   160.0      0.1501E-03
   161.0      0.1304E-03
   162.0      0.1134E-03
   163.0      0.1001E-03
   164.0      0.9172E-04
   165.0      0.8899E-04
   166.0      0.9260E-04
   167.0      0.1029E-03
   168.0      0.1199E-03
   169.0      0.1433E-03
   170.0      0.1724E-03
   171.0      0.2060E-03
   172.0      0.2428E-03
   173.0      0.2812E-03
   174.0      0.3195E-03
   175.0      0.3558E-03
   176.0      0.3884E-03
   177.0      0.4156E-03
   178.0      0.4361E-03
   179.0      0.4489E-03
   180.0      0.4532E-03
 END
