# 178 angles,  1 tensor ranks for 0=projectile
@subtitle   "p+O20 with Konig-Delaroche;"                                                   
@legend ON
@legend x1 0.2
@legend y1 0.8
@g0 type LOGY
@yaxis ticklabel format power
@xaxis label "Scattering angle (degrees)"
@yaxis label "Cross section (mb/sr)"
@legend string   0 "Partition=  1 Excit=  1 near/far= 1"
#legend string   0 "Lab energy =   35.0000"
@s0 linestyle   1
#  Theta       sigma       iT11        T20         T21         T22         Kyy for projectile
   3.000      0.1312E+06
   4.000      0.3769E+05
   5.000      0.1447E+05
   6.000       7029.    
   7.000       4218.    
   8.000       3017.    
   9.000       2441.    
   10.00       2127.    
   11.00       1926.    
   12.00       1775.    
   13.00       1647.    
   14.00       1527.    
   15.00       1412.    
   16.00       1300.    
   17.00       1189.    
   18.00       1080.    
   19.00       975.0    
   20.00       873.7    
   21.00       777.1    
   22.00       686.0    
   23.00       600.8    
   24.00       521.9    
   25.00       449.5    
   26.00       383.9    
   27.00       324.8    
   28.00       272.3    
   29.00       226.1    
   30.00       185.9    
   31.00       151.4    
   32.00       122.1    
   33.00       97.68    
   34.00       77.62    
   35.00       61.46    
   36.00       48.76    
   37.00       39.06    
   38.00       31.92    
   39.00       26.94    
   40.00       23.73    
   41.00       21.95    
   42.00       21.27    
   43.00       21.42    
   44.00       22.14    
   45.00       23.23    
   46.00       24.51    
   47.00       25.83    
   48.00       27.09    
   49.00       28.18    
   50.00       29.05    
   51.00       29.64    
   52.00       29.95    
   53.00       29.96    
   54.00       29.67    
   55.00       29.11    
   56.00       28.28    
   57.00       27.24    
   58.00       25.99    
   59.00       24.60    
   60.00       23.08    
   61.00       21.47    
   62.00       19.82    
   63.00       18.14    
   64.00       16.47    
   65.00       14.84    
   66.00       13.27    
   67.00       11.77    
   68.00       10.36    
   69.00       9.050    
   70.00       7.848    
   71.00       6.760    
   72.00       5.786    
   73.00       4.925    
   74.00       4.176    
   75.00       3.532    
   76.00       2.989    
   77.00       2.539    
   78.00       2.173    
   79.00       1.884    
   80.00       1.663    
   81.00       1.501    
   82.00       1.388    
   83.00       1.318    
   84.00       1.281    
   85.00       1.272    
   86.00       1.282    
   87.00       1.306    
   88.00       1.339    
   89.00       1.377    
   90.00       1.414    
   91.00       1.449    
   92.00       1.478    
   93.00       1.500    
   94.00       1.513    
   95.00       1.517    
   96.00       1.510    
   97.00       1.494    
   98.00       1.468    
   99.00       1.432    
   100.0       1.388    
   101.0       1.337    
   102.0       1.279    
   103.0       1.216    
   104.0       1.148    
   105.0       1.078    
   106.0       1.005    
   107.0      0.9313    
   108.0      0.8576    
   109.0      0.7849    
   110.0      0.7140    
   111.0      0.6455    
   112.0      0.5802    
   113.0      0.5184    
   114.0      0.4606    
   115.0      0.4071    
   116.0      0.3581    
   117.0      0.3137    
   118.0      0.2739    
   119.0      0.2387    
   120.0      0.2080    
   121.0      0.1816    
   122.0      0.1592    
   123.0      0.1407    
   124.0      0.1257    
   125.0      0.1138    
   126.0      0.1049    
   127.0      0.9853E-01
   128.0      0.9435E-01
   129.0      0.9203E-01
   130.0      0.9126E-01
   131.0      0.9173E-01
   132.0      0.9315E-01
   133.0      0.9524E-01
   134.0      0.9777E-01
   135.0      0.1005    
   136.0      0.1033    
   137.0      0.1059    
   138.0      0.1082    
   139.0      0.1101    
   140.0      0.1116    
   141.0      0.1125    
   142.0      0.1129    
   143.0      0.1127    
   144.0      0.1119    
   145.0      0.1107    
   146.0      0.1089    
   147.0      0.1067    
   148.0      0.1041    
   149.0      0.1012    
   150.0      0.9817E-01
   151.0      0.9498E-01
   152.0      0.9175E-01
   153.0      0.8856E-01
   154.0      0.8548E-01
   155.0      0.8260E-01
   156.0      0.7997E-01
   157.0      0.7765E-01
   158.0      0.7568E-01
   159.0      0.7411E-01
   160.0      0.7294E-01
   161.0      0.7221E-01
   162.0      0.7189E-01
   163.0      0.7200E-01
   164.0      0.7250E-01
   165.0      0.7337E-01
   166.0      0.7457E-01
   167.0      0.7605E-01
   168.0      0.7776E-01
   169.0      0.7964E-01
   170.0      0.8163E-01
   171.0      0.8368E-01
   172.0      0.8571E-01
   173.0      0.8767E-01
   174.0      0.8950E-01
   175.0      0.9114E-01
   176.0      0.9256E-01
   177.0      0.9370E-01
   178.0      0.9455E-01
   179.0      0.9506E-01
   180.0      0.9523E-01
 END
