# 181 angles,  1 tensor ranks for 0=projectile
@subtitle   "16C(p,d) @ 11.5AMeV CH89 (p) + Daeh (d)"                                       
@legend ON
@legend x1 0.2
@legend y1 0.8
@g0 type LOGY
@yaxis ticklabel format power
@xaxis label "Scattering angle (degrees)"
@yaxis label "Cross section (mb/sr)"
@legend string   0 "Partition=  1 Excit=  1 near/far= 1"
#legend string   0 "Lab energy =   11.5000"
@s0 linestyle   1
#  Theta       sigma       iT11        T20         T21         T22         Kyy for projectile
  0.1000E-01  0.6872E+16
   1.000      0.6832E+08
   2.000      0.4194E+07
   3.000      0.8063E+06
   4.000      0.2469E+06
   5.000      0.9762E+05
   6.000      0.4544E+05
   7.000      0.2376E+05
   8.000      0.1358E+05
   9.000       8349.    
   10.00       5467.    
   11.00       3784.    
   12.00       2753.    
   13.00       2095.    
   14.00       1657.    
   15.00       1356.    
   16.00       1141.    
   17.00       983.1    
   18.00       862.3    
   19.00       767.1    
   20.00       689.7    
   21.00       625.1    
   22.00       569.6    
   23.00       521.1    
   24.00       477.7    
   25.00       438.5    
   26.00       402.5    
   27.00       369.3    
   28.00       338.4    
   29.00       309.5    
   30.00       282.4    
   31.00       257.1    
   32.00       233.3    
   33.00       211.0    
   34.00       190.1    
   35.00       170.6    
   36.00       152.4    
   37.00       135.4    
   38.00       119.8    
   39.00       105.3    
   40.00       91.97    
   41.00       79.78    
   42.00       68.67    
   43.00       58.61    
   44.00       49.55    
   45.00       41.43    
   46.00       34.23    
   47.00       27.87    
   48.00       22.33    
   49.00       17.54    
   50.00       13.45    
   51.00       10.02    
   52.00       7.192    
   53.00       4.917    
   54.00       3.146    
   55.00       1.831    
   56.00      0.9246    
   57.00      0.3821    
   58.00      0.1601    
   59.00      0.2170    
   60.00      0.5136    
   61.00       1.013    
   62.00       1.679    
   63.00       2.481    
   64.00       3.389    
   65.00       4.374    
   66.00       5.411    
   67.00       6.478    
   68.00       7.555    
   69.00       8.623    
   70.00       9.666    
   71.00       10.67    
   72.00       11.63    
   73.00       12.52    
   74.00       13.35    
   75.00       14.10    
   76.00       14.77    
   77.00       15.37    
   78.00       15.87    
   79.00       16.30    
   80.00       16.64    
   81.00       16.89    
   82.00       17.07    
   83.00       17.17    
   84.00       17.19    
   85.00       17.14    
   86.00       17.02    
   87.00       16.85    
   88.00       16.61    
   89.00       16.33    
   90.00       15.99    
   91.00       15.62    
   92.00       15.21    
   93.00       14.76    
   94.00       14.29    
   95.00       13.80    
   96.00       13.28    
   97.00       12.76    
   98.00       12.22    
   99.00       11.67    
   100.0       11.13    
   101.0       10.58    
   102.0       10.03    
   103.0       9.491    
   104.0       8.957    
   105.0       8.432    
   106.0       7.918    
   107.0       7.417    
   108.0       6.929    
   109.0       6.456    
   110.0       5.999    
   111.0       5.557    
   112.0       5.133    
   113.0       4.727    
   114.0       4.338    
   115.0       3.967    
   116.0       3.614    
   117.0       3.279    
   118.0       2.963    
   119.0       2.666    
   120.0       2.387    
   121.0       2.126    
   122.0       1.884    
   123.0       1.660    
   124.0       1.455    
   125.0       1.268    
   126.0       1.100    
   127.0      0.9501    
   128.0      0.8191    
   129.0      0.7068    
   130.0      0.6133    
   131.0      0.5388    
   132.0      0.4833    
   133.0      0.4470    
   134.0      0.4300    
   135.0      0.4322    
   136.0      0.4539    
   137.0      0.4951    
   138.0      0.5556    
   139.0      0.6355    
   140.0      0.7347    
   141.0      0.8530    
   142.0      0.9901    
   143.0       1.146    
   144.0       1.320    
   145.0       1.511    
   146.0       1.720    
   147.0       1.945    
   148.0       2.186    
   149.0       2.441    
   150.0       2.711    
   151.0       2.993    
   152.0       3.287    
   153.0       3.592    
   154.0       3.905    
   155.0       4.227    
   156.0       4.554    
   157.0       4.887    
   158.0       5.223    
   159.0       5.560    
   160.0       5.897    
   161.0       6.232    
   162.0       6.563    
   163.0       6.889    
   164.0       7.207    
   165.0       7.517    
   166.0       7.816    
   167.0       8.103    
   168.0       8.376    
   169.0       8.633    
   170.0       8.873    
   171.0       9.095    
   172.0       9.297    
   173.0       9.479    
   174.0       9.638    
   175.0       9.774    
   176.0       9.887    
   177.0       9.976    
   178.0       10.04    
   179.0       10.08    
   180.0       10.09    
 END
@legend string   1 "Partition=  2 Excit=  1 near/far= 1"
#legend string   0 "Lab energy =   11.5000"
@s1 linestyle   2
#  Theta       sigma       iT11        T20         T21         T22         Kyy for projectile
   0.000       13.81    
   1.000       13.80    
   2.000       13.78    
   3.000       13.75    
   4.000       13.71    
   5.000       13.67    
   6.000       13.64    
   7.000       13.62    
   8.000       13.63    
   9.000       13.66    
   10.00       13.74    
   11.00       13.85    
   12.00       14.00    
   13.00       14.20    
   14.00       14.43    
   15.00       14.70    
   16.00       14.99    
   17.00       15.30    
   18.00       15.62    
   19.00       15.94    
   20.00       16.24    
   21.00       16.52    
   22.00       16.77    
   23.00       16.97    
   24.00       17.12    
   25.00       17.20    
   26.00       17.22    
   27.00       17.18    
   28.00       17.05    
   29.00       16.86    
   30.00       16.59    
   31.00       16.25    
   32.00       15.84    
   33.00       15.38    
   34.00       14.85    
   35.00       14.28    
   36.00       13.67    
   37.00       13.02    
   38.00       12.34    
   39.00       11.65    
   40.00       10.94    
   41.00       10.24    
   42.00       9.534    
   43.00       8.842    
   44.00       8.167    
   45.00       7.513    
   46.00       6.886    
   47.00       6.290    
   48.00       5.727    
   49.00       5.200    
   50.00       4.711    
   51.00       4.261    
   52.00       3.851    
   53.00       3.479    
   54.00       3.146    
   55.00       2.850    
   56.00       2.590    
   57.00       2.364    
   58.00       2.170    
   59.00       2.006    
   60.00       1.868    
   61.00       1.756    
   62.00       1.664    
   63.00       1.593    
   64.00       1.538    
   65.00       1.496    
   66.00       1.467    
   67.00       1.447    
   68.00       1.435    
   69.00       1.428    
   70.00       1.424    
   71.00       1.423    
   72.00       1.422    
   73.00       1.421    
   74.00       1.419    
   75.00       1.414    
   76.00       1.406    
   77.00       1.395    
   78.00       1.381    
   79.00       1.362    
   80.00       1.340    
   81.00       1.314    
   82.00       1.285    
   83.00       1.253    
   84.00       1.217    
   85.00       1.179    
   86.00       1.139    
   87.00       1.098    
   88.00       1.055    
   89.00       1.012    
   90.00      0.9691    
   91.00      0.9264    
   92.00      0.8846    
   93.00      0.8441    
   94.00      0.8054    
   95.00      0.7688    
   96.00      0.7346    
   97.00      0.7032    
   98.00      0.6747    
   99.00      0.6495    
   100.0      0.6275    
   101.0      0.6090    
   102.0      0.5939    
   103.0      0.5824    
   104.0      0.5743    
   105.0      0.5697    
   106.0      0.5684    
   107.0      0.5702    
   108.0      0.5751    
   109.0      0.5829    
   110.0      0.5932    
   111.0      0.6060    
   112.0      0.6209    
   113.0      0.6378    
   114.0      0.6563    
   115.0      0.6762    
   116.0      0.6972    
   117.0      0.7190    
   118.0      0.7414    
   119.0      0.7641    
   120.0      0.7869    
   121.0      0.8096    
   122.0      0.8318    
   123.0      0.8534    
   124.0      0.8742    
   125.0      0.8939    
   126.0      0.9125    
   127.0      0.9298    
   128.0      0.9455    
   129.0      0.9597    
   130.0      0.9722    
   131.0      0.9829    
   132.0      0.9918    
   133.0      0.9988    
   134.0       1.004    
   135.0       1.007    
   136.0       1.008    
   137.0       1.007    
   138.0       1.005    
   139.0       1.000    
   140.0      0.9940    
   141.0      0.9860    
   142.0      0.9763    
   143.0      0.9650    
   144.0      0.9522    
   145.0      0.9380    
   146.0      0.9225    
   147.0      0.9059    
   148.0      0.8881    
   149.0      0.8695    
   150.0      0.8499    
   151.0      0.8297    
   152.0      0.8088    
   153.0      0.7875    
   154.0      0.7658    
   155.0      0.7439    
   156.0      0.7218    
   157.0      0.6998    
   158.0      0.6778    
   159.0      0.6561    
   160.0      0.6346    
   161.0      0.6136    
   162.0      0.5931    
   163.0      0.5732    
   164.0      0.5540    
   165.0      0.5355    
   166.0      0.5179    
   167.0      0.5012    
   168.0      0.4855    
   169.0      0.4708    
   170.0      0.4572    
   171.0      0.4448    
   172.0      0.4335    
   173.0      0.4235    
   174.0      0.4147    
   175.0      0.4073    
   176.0      0.4011    
   177.0      0.3964    
   178.0      0.3929    
   179.0      0.3908    
   180.0      0.3902    
 END
