# 178 angles,  1 tensor ranks for 0=projectile
@subtitle   "20O + d 3-?;"                                                                  
@legend ON
@legend x1 0.2
@legend y1 0.8
@g0 type LOGY
@yaxis ticklabel format power
@xaxis label "Scattering angle (degrees)"
@yaxis label "Cross section (mb/sr)"
@legend string   0 "Partition=  1 Excit=  1 near/far= 1"
#legend string   0 "Lab energy =   70.0000"
@s0 linestyle   1
#  Theta       sigma       iT11        T20         T21         T22         Kyy for projectile
   3.000      0.2710E+05
   4.000      0.1161E+05
   5.000       8332.    
   6.000       6860.    
   7.000       5636.    
   8.000       4459.    
   9.000       3360.    
   10.00       2396.    
   11.00       1603.    
   12.00       994.9    
   13.00       562.3    
   14.00       282.9    
   15.00       126.1    
   16.00       59.50    
   17.00       52.14    
   18.00       77.84    
   19.00       116.4    
   20.00       153.7    
   21.00       181.6    
   22.00       196.5    
   23.00       198.2    
   24.00       188.7    
   25.00       171.4    
   26.00       149.5    
   27.00       126.3    
   28.00       104.1    
   29.00       84.58    
   30.00       68.61    
   31.00       56.38    
   32.00       47.59    
   33.00       41.66    
   34.00       37.87    
   35.00       35.48    
   36.00       33.86    
   37.00       32.51    
   38.00       31.09    
   39.00       29.39    
   40.00       27.37    
   41.00       25.04    
   42.00       22.50    
   43.00       19.87    
   44.00       17.26    
   45.00       14.80    
   46.00       12.55    
   47.00       10.58    
   48.00       8.894    
   49.00       7.504    
   50.00       6.381    
   51.00       5.492    
   52.00       4.794    
   53.00       4.245    
   54.00       3.806    
   55.00       3.443    
   56.00       3.130    
   57.00       2.847    
   58.00       2.583    
   59.00       2.331    
   60.00       2.089    
   61.00       1.856    
   62.00       1.637    
   63.00       1.432    
   64.00       1.246    
   65.00       1.079    
   66.00      0.9327    
   67.00      0.8069    
   68.00      0.7004    
   69.00      0.6115    
   70.00      0.5379    
   71.00      0.4771    
   72.00      0.4266    
   73.00      0.3843    
   74.00      0.3479    
   75.00      0.3160    
   76.00      0.2872    
   77.00      0.2608    
   78.00      0.2360    
   79.00      0.2127    
   80.00      0.1907    
   81.00      0.1701    
   82.00      0.1508    
   83.00      0.1332    
   84.00      0.1171    
   85.00      0.1028    
   86.00      0.9014E-01
   87.00      0.7913E-01
   88.00      0.6965E-01
   89.00      0.6158E-01
   90.00      0.5475E-01
   91.00      0.4897E-01
   92.00      0.4407E-01
   93.00      0.3989E-01
   94.00      0.3627E-01
   95.00      0.3308E-01
   96.00      0.3022E-01
   97.00      0.2760E-01
   98.00      0.2517E-01
   99.00      0.2289E-01
   100.0      0.2073E-01
   101.0      0.1869E-01
   102.0      0.1677E-01
   103.0      0.1497E-01
   104.0      0.1330E-01
   105.0      0.1177E-01
   106.0      0.1037E-01
   107.0      0.9121E-02
   108.0      0.8010E-02
   109.0      0.7035E-02
   110.0      0.6188E-02
   111.0      0.5460E-02
   112.0      0.4838E-02
   113.0      0.4310E-02
   114.0      0.3862E-02
   115.0      0.3480E-02
   116.0      0.3154E-02
   117.0      0.2872E-02
   118.0      0.2624E-02
   119.0      0.2403E-02
   120.0      0.2203E-02
   121.0      0.2019E-02
   122.0      0.1847E-02
   123.0      0.1685E-02
   124.0      0.1533E-02
   125.0      0.1388E-02
   126.0      0.1252E-02
   127.0      0.1124E-02
   128.0      0.1006E-02
   129.0      0.8958E-03
   130.0      0.7955E-03
   131.0      0.7048E-03
   132.0      0.6234E-03
   133.0      0.5513E-03
   134.0      0.4880E-03
   135.0      0.4329E-03
   136.0      0.3852E-03
   137.0      0.3443E-03
   138.0      0.3093E-03
   139.0      0.2794E-03
   140.0      0.2539E-03
   141.0      0.2320E-03
   142.0      0.2130E-03
   143.0      0.1966E-03
   144.0      0.1821E-03
   145.0      0.1693E-03
   146.0      0.1578E-03
   147.0      0.1474E-03
   148.0      0.1379E-03
   149.0      0.1291E-03
   150.0      0.1211E-03
   151.0      0.1135E-03
   152.0      0.1065E-03
   153.0      0.9978E-04
   154.0      0.9339E-04
   155.0      0.8722E-04
   156.0      0.8124E-04
   157.0      0.7541E-04
   158.0      0.6972E-04
   159.0      0.6419E-04
   160.0      0.5886E-04
   161.0      0.5381E-04
   162.0      0.4913E-04
   163.0      0.4494E-04
   164.0      0.4136E-04
   165.0      0.3850E-04
   166.0      0.3647E-04
   167.0      0.3533E-04
   168.0      0.3513E-04
   169.0      0.3586E-04
   170.0      0.3747E-04
   171.0      0.3985E-04
   172.0      0.4285E-04
   173.0      0.4628E-04
   174.0      0.4992E-04
   175.0      0.5353E-04
   176.0      0.5688E-04
   177.0      0.5975E-04
   178.0      0.6195E-04
   179.0      0.6333E-04
   180.0      0.6380E-04
 END
@legend string   1 "Partition=  1 Excit=  2 near/far= 1"
#legend string   0 "Lab energy =   70.0000"
@s1 linestyle   2
#  Theta       sigma       iT11        T20         T21         T22         Kyy for projectile
   3.000       15.15    
   4.000       18.19    
   5.000       21.35    
   6.000       24.30    
   7.000       26.84    
   8.000       28.95    
   9.000       30.75    
   10.00       32.45    
   11.00       34.27    
   12.00       36.36    
   13.00       38.73    
   14.00       41.25    
   15.00       43.70    
   16.00       45.75    
   17.00       47.08    
   18.00       47.43    
   19.00       46.64    
   20.00       44.68    
   21.00       41.69    
   22.00       37.90    
   23.00       33.63    
   24.00       29.21    
   25.00       24.99    
   26.00       21.24    
   27.00       18.15    
   28.00       15.83    
   29.00       14.28    
   30.00       13.43    
   31.00       13.14    
   32.00       13.25    
   33.00       13.57    
   34.00       13.94    
   35.00       14.21    
   36.00       14.30    
   37.00       14.15    
   38.00       13.73    
   39.00       13.08    
   40.00       12.24    
   41.00       11.27    
   42.00       10.23    
   43.00       9.193    
   44.00       8.200    
   45.00       7.294    
   46.00       6.500    
   47.00       5.826    
   48.00       5.269    
   49.00       4.816    
   50.00       4.448    
   51.00       4.144    
   52.00       3.883    
   53.00       3.646    
   54.00       3.417    
   55.00       3.187    
   56.00       2.950    
   57.00       2.704    
   58.00       2.452    
   59.00       2.198    
   60.00       1.947    
   61.00       1.706    
   62.00       1.480    
   63.00       1.273    
   64.00       1.089    
   65.00      0.9289    
   66.00      0.7927    
   67.00      0.6795    
   68.00      0.5870    
   69.00      0.5127    
   70.00      0.4532    
   71.00      0.4056    
   72.00      0.3669    
   73.00      0.3347    
   74.00      0.3067    
   75.00      0.2815    
   76.00      0.2580    
   77.00      0.2354    
   78.00      0.2134    
   79.00      0.1922    
   80.00      0.1717    
   81.00      0.1522    
   82.00      0.1340    
   83.00      0.1173    
   84.00      0.1022    
   85.00      0.8890E-01
   86.00      0.7737E-01
   87.00      0.6755E-01
   88.00      0.5928E-01
   89.00      0.5238E-01
   90.00      0.4666E-01
   91.00      0.4192E-01
   92.00      0.3794E-01
   93.00      0.3456E-01
   94.00      0.3159E-01
   95.00      0.2893E-01
   96.00      0.2648E-01
   97.00      0.2418E-01
   98.00      0.2200E-01
   99.00      0.1993E-01
   100.0      0.1795E-01
   101.0      0.1609E-01
   102.0      0.1435E-01
   103.0      0.1276E-01
   104.0      0.1133E-01
   105.0      0.1006E-01
   106.0      0.8963E-02
   107.0      0.8025E-02
   108.0      0.7240E-02
   109.0      0.6593E-02
   110.0      0.6064E-02
   111.0      0.5633E-02
   112.0      0.5277E-02
   113.0      0.4980E-02
   114.0      0.4724E-02
   115.0      0.4496E-02
   116.0      0.4282E-02
   117.0      0.4068E-02
   118.0      0.3849E-02
   119.0      0.3621E-02
   120.0      0.3384E-02
   121.0      0.3140E-02
   122.0      0.2891E-02
   123.0      0.2639E-02
   124.0      0.2390E-02
   125.0      0.2148E-02
   126.0      0.1917E-02
   127.0      0.1702E-02
   128.0      0.1502E-02
   129.0      0.1320E-02
   130.0      0.1157E-02
   131.0      0.1014E-02
   132.0      0.8936E-03
   133.0      0.7936E-03
   134.0      0.7122E-03
   135.0      0.6472E-03
   136.0      0.5967E-03
   137.0      0.5585E-03
   138.0      0.5302E-03
   139.0      0.5088E-03
   140.0      0.4918E-03
   141.0      0.4779E-03
   142.0      0.4666E-03
   143.0      0.4577E-03
   144.0      0.4501E-03
   145.0      0.4419E-03
   146.0      0.4311E-03
   147.0      0.4170E-03
   148.0      0.4001E-03
   149.0      0.3816E-03
   150.0      0.3627E-03
   151.0      0.3437E-03
   152.0      0.3244E-03
   153.0      0.3048E-03
   154.0      0.2851E-03
   155.0      0.2657E-03
   156.0      0.2471E-03
   157.0      0.2294E-03
   158.0      0.2128E-03
   159.0      0.1976E-03
   160.0      0.1842E-03
   161.0      0.1730E-03
   162.0      0.1640E-03
   163.0      0.1570E-03
   164.0      0.1513E-03
   165.0      0.1467E-03
   166.0      0.1433E-03
   167.0      0.1411E-03
   168.0      0.1404E-03
   169.0      0.1410E-03
   170.0      0.1426E-03
   171.0      0.1451E-03
   172.0      0.1483E-03
   173.0      0.1522E-03
   174.0      0.1562E-03
   175.0      0.1599E-03
   176.0      0.1626E-03
   177.0      0.1642E-03
   178.0      0.1647E-03
   179.0      0.1646E-03
   180.0      0.1645E-03
 END
